      [Nr]      [ml]      [pH]       [s]      dy/dx
         0    0.0000     1.989     0.000         00
         1    0.0500     1.989    35.461      0.000
         2    0.1000     2.004    70.952      0.305
         3    0.1500     2.035   106.443      0.611
         4    0.2000     2.065   141.874      0.611
         5    0.2500     2.091   177.154      0.519
         6    0.3000     2.123   212.525      0.626
         7    0.3500     2.157   247.956      0.687
         8    0.4000     2.188   283.177      0.611
         9    0.4500     2.233   318.457      0.916
        10    0.5000     2.268   353.708      0.687
        11    0.5500     2.310   389.049      0.840
        12    0.6000     2.371   424.330      1.222
        13    0.6500     2.418   459.851      0.947
        14    0.7000     2.482   495.101      1.283
        15    0.7500     2.556   530.442      1.466
        16    0.8000     2.644   565.693      1.771
        17    0.8500     2.753   600.914      2.168
        18    0.9000     2.879   636.224      2.535
        19    0.9500     3.059   671.535      3.588
        20    1.0000     3.382   706.996      6.474
        21    1.0500     4.386   742.277     20.079
        22    1.1000     7.494   777.798     62.161
        23    1.1500     9.559   814.491     41.288
        24    1.2000    10.021   850.012      9.238
        25    1.2500    10.307   885.232      5.726
        26    1.3000    10.494   920.814      3.741
        27    1.3500    10.647   956.074      3.054
        28    1.4000    10.769   991.686      2.443
        29    1.4500    10.860  1026.936      1.832
        30    1.5000    10.952  1062.577      1.832
        31    1.5500    11.028  1098.159      1.527
        32    1.6000    11.090  1133.710      1.222
        33    1.6500    11.151  1169.081      1.222
        34    1.7000    11.196  1204.662      0.916
        35    1.7500    11.242  1240.003      0.916
        36    1.8000    11.288  1275.343      0.916
        37    1.8500    11.327  1310.955      0.779
        38    1.9000    11.364  1346.205      0.748
        39    1.9500    11.395  1381.847      0.611
        40    2.0000    11.425  1417.368      0.611
        41    2.0500    11.456  1452.799      0.611
        42    2.1000    11.487  1488.410      0.611
        43    2.1500    11.509  1523.991      0.443
        44    2.2000    11.532  1559.422      0.473
        45    2.2500    11.559  1594.703      0.534
        46    2.3000    11.578  1630.104      0.382
        47    2.3500    11.593  1665.745      0.305
        48    2.4000    11.615  1701.176      0.428
        49    2.4500    11.624  1736.637      0.183
        50    2.5000    11.654  1772.248      0.611
        51    2.5500    11.670  1807.709      0.305
        52    2.6000    11.685  1843.290      0.305
        53    2.6500    11.700  1878.571      0.305
        54    2.7000    11.716  1913.791      0.305
        55    2.7500    11.731  1949.373      0.305
        56    2.8000    11.745  1984.984      0.275
        57    2.8500    11.759  2020.204      0.290
        58    2.9000    11.765  2055.455      0.122
        59    2.9500    11.777  2090.886      0.229
        60    3.0000    11.792  2126.497      0.305
        61    3.0500    11.807  2162.048      0.305
        62    3.1000    11.822  2197.509      0.305
        63    3.1500    11.825  2232.760      0.046
        64    3.2000    11.838  2268.341      0.260
        65    3.2500    11.853  2303.652      0.305
        66    3.3000    11.864  2339.143      0.229
        67    3.3500    11.868  2374.364      0.076
        68    3.4000    11.884  2409.885      0.305
        69    3.4500    11.896  2445.115      0.244
        70    3.5000    11.899  2480.336      0.061
        71    3.5500    11.914  2515.797      0.305
        72    3.6000    11.918  2551.198      0.076
        73    3.6500    11.929  2586.839      0.229
        74    3.7000    11.945  2622.300      0.305
        75    3.7500    11.945  2657.701      0.000
        76    3.8000    11.960  2693.282      0.305
        77    3.8500    11.960  2728.833      0.000
        78    3.9000    11.975  2764.475      0.305
        79    3.9500    11.975  2799.755      0.000
        80    4.0000    11.990  2835.036      0.305
        81    4.0500    11.990  2870.677      0.000
        82    4.1000    12.006  2907.460      0.305
Date                   : 10-08-2021
Time                   : 12:58:32
Measure point          : 1
File name              : c:\multi_t\data\11A08003.mtd
Method file            : c:\multi_t\sol1.mtm
Method Multi_T         : pH equivalence point [PEQ]
Method created         : 19.04.18  14:33:21
Method changed / User  : 08.10.21  12:47:45 / 
User                   : 
Sample name            : Sample # 1
Sample-rem             : 
Sensor input           : INP # 3 : pH:Electrode ID 9999
Titration burette      : ADR # 2 : Tuni-00693395:0.1M NaOH
Dosing burette         : not used:Solution A
W01                    :     1.000000
W02                    :     1.000000
W03                    :     1.000000
DataSort1              : DS1
DataSort12             : DS12
DataSort13             : DS13
TabStatus              : TS
Status                 : 128
